Pin [Pa]	ΔP local [Pa]	ΔP dist [Pa]	ΔP total [Pa]	Pout [Pa]	u [m/s]
13092.92029	0.000712	0.000828311	0.001540311	1.041	0.00
13102.40553	0.0712	0.046579355	0.117779355	10.41	0.01
13113.13922	0.2848	0.156673651	0.441473651	20.82	0.02
13124.06708	0.6408	0.318533905	0.959333905	31.23	0.03
13135.18394	1.1392	0.526985244	1.666185244	41.64	0.04
13146.48649	1.78	0.778737302	2.558737302	52.05	0.05
13157.97237	2.5632	1.071416076	3.634616076	62.46	0.06
13169.63974	3.4888	1.403185345	4.891985345	72.87	0.07
13181.48711	4.5568	1.772560012	6.329360012	83.28	0.08
13193.51325	5.7672	2.178300854	7.945500854	93.69	0.09
13205.7171	7.12	2.619349621	9.739349621	104.1	0.10
13218.09774	8.6152	3.094786326	11.70998633	114.51	0.11
13230.65435	10.2528	3.603799751	13.85659975	124.92	0.12
13243.38622	12.0328	4.145666259	16.17846626	135.33	0.13
13256.29268	13.9552	4.719734107	18.67493411	145.74	0.14
13269.37316	16.02	5.325411523	21.34541152	156.15	0.15
13282.62711	18.2272	5.962157439	24.18935744	166.56	0.16
13296.05402	20.5768	6.629474168	27.20627417	176.97	0.17
13309.65345	23.0688	7.32690152	30.39570152	187.38	0.18
13323.42496	25.7032	8.054011993	33.75721199	197.79	0.19
13337.36816	28.48	8.810406827	37.29040683	208.2	0.20
13351.48266	31.3992	9.595712691	40.99491269	218.61	0.21
13365.76813	34.4608	10.40957891	44.87037891	229.02	0.22
13380.22423	37.6648	11.25167511	48.91647511	239.43	0.23
13394.85064	41.0112	12.12168917	53.13288917	249.84	0.24
13409.64708	44.5	13.01932551	57.51932551	260.25	0.25
13424.61325	48.1312	13.94430358	62.07550358	270.66	0.26
13439.74891	51.9048	14.89635651	66.80115651	281.07	0.27
13455.05378	55.8208	15.87522997	71.69602997	291.48	0.28
13470.52763	59.8792	16.88068114	76.75988114	301.89	0.29
13486.17023	64.08	17.91247784	81.99247784	312.3	0.30
13501.98135	68.4232	18.97039765	87.39359765	322.71	0.31
13517.96078	72.9088	20.05422727	92.96302727	333.12	0.32
13534.10831	77.5368	21.16376181	98.70056181	343.53	0.33
13550.42375	82.3072	22.29880425	104.6060043	353.94	0.34
13566.90691	87.22	23.45916489	110.6791649	364.35	0.35
13583.55761	92.2752	24.64466089	116.9198609	374.76	0.36
13600.37567	97.4728	25.85511581	123.3279158	385.17	0.37
13617.36091	102.8128	27.09035925	129.9031593	395.58	0.38
13634.51318	108.2952	28.35022648	136.6454265	405.99	0.39
13651.83231	113.92	29.63455807	143.5545581	416.4	0.40
13669.31815	119.6872	30.94319966	150.6303997	426.81	0.41
13686.97055	125.5968	32.27600161	157.8728016	437.22	0.42
13704.78937	131.6488	33.63281881	165.2816188	447.63	0.43
13722.77446	137.8432	35.01351036	172.8567104	458.04	0.44
13740.92569	144.18	36.41793944	180.5979394	468.45	0.45
13759.24292	150.6592	37.84597305	188.505173	478.86	0.46
13777.72603	157.2808	39.29748182	196.5782818	489.27	0.47
13796.37489	164.0448	40.77233987	204.8171399	499.68	0.48
13815.18937	170.9512	42.27042461	213.2216246	510.09	0.49
13834.16937	178	43.79161661	221.7916166	520.5	0.50
13851.16174	185.1912	45.33579945	230.5269995	528.75699	0.51
13865.56917	192.5248	46.90285958	239.4276596	534.26376	0.52
13880.27155	200.0008	48.49268621	248.4934862	539.90031	0.53
13895.26876	207.6192	50.10517116	257.7243712	545.66664	0.54
13910.56071	215.38	51.74020879	267.1202088	551.56275	0.55
13926.14729	223.2832	53.39769588	276.6808959	557.58864	0.56
13942.02839	231.3288	55.07753153	286.4063315	563.74431	0.57
13958.20393	239.5168	56.77961704	296.296417	570.02976	0.58
13974.6738	247.8472	58.5038559	306.3510559	576.44499	0.59
13991.4379	256.32	60.25015361	316.5701536	582.99	0.60
14008.49616	264.9352	62.01841768	326.9536177	589.66479	0.61
14025.84847	273.6928	63.80855752	337.5013575	596.46936	0.62
14043.49474	282.5928	65.62048439	348.2132844	603.40371	0.63
14061.4349	291.6352	67.45411129	359.0893113	610.46784	0.64
14079.66885	300.82	69.30935295	370.129353	617.66175	0.65
14098.19652	310.1472	71.18612576	381.3333258	624.98544	0.66
14117.01781	319.6168	73.08434769	392.7011477	632.43891	0.67
14136.13265	329.2288	75.00393824	404.2327382	640.02216	0.68
14155.54096	338.9832	76.94481842	415.9280184	647.73519	0.69
14175.24266	348.88	78.90691066	427.7869107	655.578	0.70
14195.23768	358.9192	80.89013879	439.8093388	663.55059	0.71
14215.52594	369.1008	82.89442799	451.995228	671.65296	0.72
14236.10736	379.4248	84.91970475	464.3445047	679.88511	0.73
14256.98189	389.8912	86.96589681	476.8570968	688.24704	0.74
14278.14943	400.5	89.03293315	489.5329332	696.73875	0.75
14299.60993	411.2512	91.12074394	502.3719439	705.36024	0.76
14321.36332	422.1448	93.2292605	515.3740605	714.11151	0.77
14343.40953	433.1808	95.35841526	528.5392153	722.99256	0.78
14365.74848	444.3592	97.50814177	541.8673418	732.00339	0.79
14388.38012	455.68	99.6783746	555.3583746	741.144	0.80
14411.30439	467.1432	101.8690494	569.0122494	750.41439	0.81
14434.52121	478.7488	104.0801027	582.8289027	759.81456	0.82
14458.03053	490.4968	106.3114721	596.8082721	769.34451	0.83
14481.83229	502.3872	108.5630962	610.9502962	779.00424	0.84
14505.92641	514.42	110.8349144	625.2549144	788.79375	0.85
14530.31286	526.5952	113.1268671	639.7220671	798.71304	0.86
14554.99156	538.9128	115.4388954	654.3516954	808.76211	0.87
14579.96245	551.3728	117.7709414	669.1437414	818.94096	0.88
14605.22549	563.9752	120.122948	684.098148	829.24959	0.89
14630.78061	576.72	122.4948589	699.2148589	839.688	0.90
14656.62776	589.6072	124.8866186	714.4938186	850.25619	0.91
14682.76688	602.6368	127.2981723	729.9349723	860.95416	0.92
14709.19793	615.8088	129.729466	745.538266	871.78191	0.93
14735.92084	629.1232	132.1804464	761.3036464	882.73944	0.94
14762.93556	642.58	134.6510609	777.2310609	893.82675	0.95
14790.24205	656.1792	137.1412577	793.3204577	905.04384	0.96
14817.84025	669.9208	139.6509857	809.5717857	916.39071	0.97
14845.7301	683.8048	142.1801941	825.9849941	927.86736	0.98
14873.91157	697.8312	144.7288332	842.5600332	939.47379	0.99
14902.3846	712	147.2968537	859.2968537	951.21	1.00
14931.14915	726.3112	149.884207	876.195407	963.07599	1.01
14960.20515	740.7648	152.490845	893.255645	975.07176	1.02
14989.55258	755.3608	155.1167203	910.4775203	987.19731	1.03
15019.19138	770.0992	157.761786	927.860986	999.45264	1.04
15049.1215	784.98	160.4259958	945.4059958	1011.83775	1.05
15079.34289	800.0032	163.109304	963.112504	1024.35264	1.06
15109.85553	815.1688	165.8116654	980.9804654	1036.99731	1.07
15140.65935	830.4768	168.5330353	999.0098353	1049.77176	1.08
15171.75431	845.9272	171.2733695	1017.200569	1062.67599	1.09
15203.14037	861.52	174.0326244	1035.552624	1075.71	1.10
15234.8175	877.2552	176.8107569	1054.065957	1088.87379	1.11
15266.78563	893.1328	179.6077242	1072.740524	1102.16736	1.12
15299.04474	909.1528	182.4234843	1091.576284	1115.59071	1.13
15331.59479	925.3152	185.2579953	1110.573195	1129.14384	1.14
15364.43572	941.62	188.111216	1129.731216	1142.82675	1.15
15397.5675	958.0672	190.9831057	1149.050306	1156.63944	1.16
15430.99008	974.6568	193.873624	1168.530424	1170.58191	1.17
15464.70344	991.3888	196.7827308	1188.171531	1184.65416	1.18
15498.70753	1008.2632	199.7103868	1207.973587	1198.85619	1.19
15533.0023	1025.28	202.6565528	1227.936553	1213.188	1.20
15567.58773	1042.4392	205.6211901	1248.06039	1227.64959	1.21
15602.46377	1059.7408	208.6042604	1268.34506	1242.24096	1.22
15637.63039	1077.1848	211.605726	1288.790526	1256.96211	1.23
15673.08754	1094.7712	214.6255491	1309.396749	1271.81304	1.24
15708.83519	1112.5	217.6636929	1330.163693	1286.79375	1.25
15744.87331	1130.3712	220.7201204	1351.09132	1301.90424	1.26
15781.20186	1148.3848	223.7947952	1372.179595	1317.14451	1.27
15817.82079	1166.5408	226.8876815	1393.428481	1332.51456	1.28
15854.73008	1184.8392	229.9987434	1414.837943	1348.01439	1.29
15891.9297	1203.28	233.1279458	1436.407946	1363.644	1.30
15929.41959	1221.8632	236.2752535	1458.138453	1379.40339	1.31
15967.19974	1240.5888	239.4406319	1480.029432	1395.29256	1.32
16005.27011	1259.4568	242.6240467	1502.080847	1411.31151	1.33
16043.63065	1278.4672	245.8254639	1524.292664	1427.46024	1.34
16082.28135	1297.62	249.0448499	1546.66485	1443.73875	1.35
16121.22216	1316.9152	252.2821712	1569.197371	1460.14704	1.36
16160.45305	1336.3528	255.5373948	1591.890195	1476.68511	1.37
16199.974	1355.9328	258.8104879	1614.743288	1493.35296	1.38
16239.78496	1375.6552	262.1014181	1637.756618	1510.15059	1.39
16279.8859	1395.52	265.4101532	1660.930153	1527.078	1.40
16320.2768	1415.5272	268.7366614	1684.263861	1544.13519	1.41
16360.95762	1435.6768	272.080911	1707.757711	1561.32216	1.42
16401.92833	1455.9688	275.4428706	1731.411671	1578.63891	1.43
16443.1889	1476.4032	278.8225094	1755.225709	1596.08544	1.44
16484.7393	1496.98	282.2197964	1779.199796	1613.66175	1.45
16526.57949	1517.6992	285.6347012	1803.333901	1631.36784	1.46
16568.70945	1538.5608	289.0671936	1827.627994	1649.20371	1.47
16611.12915	1559.5648	292.5172435	1852.082044	1667.16936	1.48
16653.83856	1580.7112	295.9848212	1876.696021	1685.26479	1.49
16696.83765	1602	299.4698973	1901.469897	1703.49	1.50
16740.12638	1623.4312	302.9724425	1926.403642	1721.84499	1.51
16783.70474	1645.0048	306.4924277	1951.497228	1740.32976	1.52
16827.57268	1666.7208	310.0298244	1976.750624	1758.94431	1.53
16871.73019	1688.5792	313.5846038	2002.163804	1777.68864	1.54
16916.17724	1710.58	317.1567378	2027.736738	1796.56275	1.55
16960.91379	1732.7232	320.7461982	2053.469398	1815.56664	1.56
17005.93982	1755.0088	324.3529573	2079.361757	1834.70031	1.57
17051.2553	1777.4368	327.9769875	2105.413787	1853.96376	1.58
17096.8602	1800.0072	331.6182613	2131.625461	1873.35699	1.59
17142.7545	1822.72	335.2767515	2157.996752	1892.88	1.60
17188.93817	1845.5752	338.9524312	2184.527631	1912.53279	1.61
17235.41118	1868.5728	342.6452737	2211.218074	1932.31536	1.62
17282.17351	1891.7128	346.3552524	2238.068052	1952.22771	1.63
17329.22513	1914.9952	350.082341	2265.077541	1972.26984	1.64
17376.56601	1938.42	353.8265132	2292.246513	1992.44175	1.65
17424.19613	1961.9872	357.5877432	2319.574943	2012.74344	1.66
17472.11547	1985.6968	361.3660053	2347.062805	2033.17491	1.67
17520.32398	2009.5488	365.1612738	2374.710074	2053.73616	1.68
17568.82166	2033.5432	368.9735234	2402.516723	2074.42719	1.69
17617.60848	2057.68	372.8027289	2430.482729	2095.248	1.70
17666.68441	2081.9592	376.6488654	2458.608065	2116.19859	1.71
17716.04942	2106.3808	380.511908	2486.892708	2137.27896	1.72
17765.70349	2130.9448	384.3918321	2515.336632	2158.48911	1.73
17815.6466	2155.6512	388.2886132	2543.939813	2179.82904	1.74
17865.87873	2180.5	392.2022272	2572.702227	2201.29875	1.75
17916.39984	2205.4912	396.1326498	2601.62385	2222.89824	1.76
17967.20992	2230.6248	400.0798571	2630.704657	2244.62751	1.77
18018.30894	2255.9008	404.0438255	2659.944625	2266.48656	1.78
18069.69687	2281.3192	408.0245313	2689.343731	2288.47539	1.79
18121.3737	2306.88	412.021951	2718.901951	2310.594	1.80
18173.3394	2332.5832	416.0360615	2748.619261	2332.84239	1.81
18225.59395	2358.4288	420.0668395	2778.49564	2355.22056	1.82
18278.13732	2384.4168	424.1142623	2808.531062	2377.72851	1.83
18330.9695	2410.5472	428.1783069	2838.725507	2400.36624	1.84
18384.09045	2436.82	432.2589508	2869.078951	2423.13375	1.85
18437.50016	2463.2352	436.3561715	2899.591372	2446.03104	1.86
18491.19861	2489.7928	440.4699466	2930.262747	2469.05811	1.87
18545.18576	2516.4928	444.6002541	2961.093054	2492.21496	1.88
18599.46161	2543.3352	448.7470717	2992.082272	2515.50159	1.89
18654.02613	2570.32	452.9103777	3023.230378	2538.918	1.90
18708.87929	2597.4472	457.0901504	3054.53735	2562.46419	1.91
18764.02108	2624.7168	461.2863681	3086.003168	2586.14016	1.92
18819.45147	2652.1288	465.4990094	3117.627809	2609.94591	1.93
18875.17044	2679.6832	469.7280529	3149.411253	2633.88144	1.94
18931.17798	2707.38	473.9734775	3181.353478	2657.94675	1.95
18987.47405	2735.2192	478.2352622	3213.454462	2682.14184	1.96
19044.05865	2763.2008	482.513386	3245.714186	2706.46671	1.97
19100.93174	2791.3248	486.8078281	3278.132628	2730.92136	1.98
19158.09331	2819.5912	491.118568	3310.709768	2755.50579	1.99
19215.54334	2848	495.445585	3343.445585	2780.22	2.00
19273.2818	2876.5512	499.7888589	3376.340059	2805.06399	2.01
19331.30868	2905.2448	504.1483694	3409.393169	2830.03776	2.02
19389.62396	2934.0808	508.5240963	3442.604896	2855.14131	2.03
19448.22761	2963.0592	512.9160196	3475.97522	2880.37464	2.04
19507.11962	2992.18	517.3241194	3509.504119	2905.73775	2.05
19566.29997	3021.4432	521.748376	3543.191576	2931.23064	2.06
19625.76863	3050.8488	526.1887698	3577.03757	2956.85331	2.07
19685.52559	3080.3968	530.6452811	3611.042081	2982.60576	2.08
19745.57083	3110.0872	535.1178906	3645.205091	3008.48799	2.09
19805.90433	3139.92	539.6065791	3679.526579	3034.5	2.10
19866.52607	3169.8952	544.1113272	3714.006527	3060.64179	2.11
19927.43603	3200.0128	548.6321161	3748.644916	3086.91336	2.12
19988.63419	3230.2728	553.1689266	3783.441727	3113.31471	2.13
20050.12053	3260.6752	557.7217401	3818.39694	3139.84584	2.14
20111.89504	3291.22	562.2905377	3853.510538	3166.50675	2.15
20173.95769	3321.9072	566.8753008	3888.782501	3193.29744	2.16
20236.30847	3352.7368	571.4760109	3924.212811	3220.21791	2.17
20298.94736	3383.7088	576.0926497	3959.80145	3247.26816	2.18
20361.87434	3414.8232	580.7251987	3995.548399	3274.44819	2.19
20425.08939	3446.08	585.37364	4031.45364	3301.758	2.20
20488.5925	3477.4792	590.0379552	4067.517155	3329.19759	2.21
20552.38364	3509.0208	594.7181265	4103.738926	3356.76696	2.22
20616.4628	3540.7048	599.4141359	4140.118936	3384.46611	2.23
20680.82996	3572.5312	604.1259657	4176.657166	3412.29504	2.24
20745.4851	3604.5	608.8535983	4213.353598	3440.25375	2.25
20810.42821	3636.6112	613.5970159	4250.208216	3468.34224	2.26
20875.65926	3668.8648	618.3562011	4287.221001	3496.56051	2.27
20941.17825	3701.2608	623.1311365	4324.391937	3524.90856	2.28
21006.98514	3733.7992	627.9218049	4361.721005	3553.38639	2.29
21073.07994	3766.48	632.728189	4399.208189	3581.994	2.30
21139.46261	3799.3032	637.5502717	4436.853472	3610.73139	2.31
21206.13315	3832.2688	642.3880359	4474.656836	3639.59856	2.32
21273.09152	3865.3768	647.2414648	4512.618265	3668.59551	2.33
21340.33773	3898.6272	652.1105416	4550.737742	3697.72224	2.34
21407.87175	3932.02	656.9952494	4589.015249	3726.97875	2.35
21475.69356	3965.5552	661.8955717	4627.450772	3756.36504	2.36
21543.80315	3999.2328	666.8114918	4666.044292	3785.88111	2.37
21612.2005	4033.0528	671.7429933	4704.795793	3815.52696	2.38
21680.8856	4067.0152	676.6900598	4743.70526	3845.30259	2.39
21749.85842	4101.12	681.652675	4782.772675	3875.208	2.40
21819.11896	4135.3672	686.6308226	4821.998023	3905.24319	2.41
21888.6672	4169.7568	691.6244865	4861.381287	3935.40816	2.42
21958.50311	4204.2888	696.6336507	4900.922451	3965.70291	2.43
22028.62669	4238.9632	701.6582992	4940.621499	3996.12744	2.44
22099.03792	4273.78	706.6984161	4980.478416	4026.68175	2.45
22169.73678	4308.7392	711.7539856	5020.493186	4057.36584	2.46
22240.72325	4343.8408	716.824992	5060.665792	4088.17971	2.47
22311.99733	4379.0848	721.9114196	5100.99622	4119.12336	2.48
22383.55899	4414.4712	727.0132528	5141.484453	4150.19679	2.49
22455.40823	4450	732.1304762	5182.130476	4181.4	2.50
22527.54501	4485.6712	737.2630744	5222.934274	4212.73299	2.51
22599.96934	4521.4848	742.4110319	5263.895832	4244.19576	2.52
22672.68119	4557.4408	747.5743336	5305.015134	4275.78831	2.53
22745.68055	4593.5392	752.7529643	5346.292164	4307.51064	2.54
22818.96741	4629.78	757.9469088	5387.726909	4339.36275	2.55
22892.54174	4666.1632	763.1561521	5429.319352	4371.34464	2.56
22966.40354	4702.6888	768.3806793	5471.069479	4403.45631	2.57
23040.55279	4739.3568	773.6204755	5512.977276	4435.69776	2.58
23114.98947	4776.1672	778.8755258	5555.042726	4468.06899	2.59
23189.71357	4813.12	784.1458156	5597.265816	4500.57	2.60
23264.72507	4850.2152	789.43133	5639.64653	4533.20079	2.61
23340.02396	4887.4528	794.7320546	5682.184855	4565.96136	2.62
23415.61023	4924.8328	800.0479748	5724.880775	4598.85171	2.63
23491.48387	4962.3552	805.3790761	5767.734276	4631.87184	2.64
23567.64484	5000.02	810.7253441	5810.745344	4665.02175	2.65
23644.09315	5037.8272	816.0867645	5853.913965	4698.30144	2.66
23720.82878	5075.7768	821.4633231	5897.240123	4731.71091	2.67
23797.85172	5113.8688	826.8550056	5940.723806	4765.25016	2.68
23875.16194	5152.1032	832.2617979	5984.364998	4798.91919	2.69
23952.75944	5190.48	837.683686	6028.163686	4832.718	2.70
24030.6442	5228.9992	843.1206559	6072.119856	4866.64659	2.71
24108.8162	5267.6608	848.5726936	6116.233494	4900.70496	2.72
24187.27545	5306.4648	854.0397852	6160.504585	4934.89311	2.73
24266.02191	5345.4112	859.521917	6204.933117	4969.21104	2.74
24345.05558	5384.5	865.0190752	6249.519075	5003.65875	2.75
24424.37644	5423.7312	870.5312461	6294.262446	5038.23624	2.76
24503.98448	5463.1048	876.0584162	6339.163216	5072.94351	2.77
24583.87968	5502.6208	881.6005718	6384.221372	5107.78056	2.78
24664.06204	5542.2792	887.1576995	6429.436899	5142.74739	2.79
24744.53154	5582.08	892.7297858	6474.809786	5177.844	2.80
24825.28816	5622.0232	898.3168173	6520.340017	5213.07039	2.81
24906.33189	5662.1088	903.9187808	6566.027581	5248.42656	2.82
24987.66272	5702.3368	909.535663	6611.872463	5283.91251	2.83
25069.28064	5742.7072	915.1674507	6657.874651	5319.52824	2.84
25151.18563	5783.22	920.8141308	6704.034131	5355.27375	2.85
25233.37768	5823.8752	926.4756901	6750.35089	5391.14904	2.86
25315.85678	5864.6728	932.1521157	6796.824916	5427.15411	2.87
25398.6229	5905.6128	937.8433945	6843.456194	5463.28896	2.88
25481.67605	5946.6952	943.5495137	6890.244714	5499.55359	2.89
25565.01621	5987.92	949.2704605	6937.19046	5535.948	2.90
25648.64336	6029.2872	955.0062219	6984.293422	5572.47219	2.91
25732.5575	6070.7968	960.7567853	7031.553585	5609.12616	2.92
25816.7586	6112.4488	966.5221381	7078.970938	5645.90991	2.93
25901.24666	6154.2432	972.3022674	7126.545467	5682.82344	2.94
25986.02166	6196.18	978.0971609	7174.277161	5719.86675	2.95
26071.0836	6238.2592	983.9068059	7222.166006	5757.03984	2.96
26156.43245	6280.4808	989.7311899	7270.21199	5794.34271	2.97
26242.06821	6322.8448	995.5703006	7318.415101	5831.77536	2.98
26327.99087	6365.3512	1001.424126	7366.775326	5869.33779	2.99
26414.2004	6408	1007.292652	7415.292652	5907.03	3.00